**************************************************************
***  MERIS LUT-168: Aerosol transmittance                  ***
***                 for each of AOTs at 560nm [AOT560],    ***
***                 for each of 78 aerosol models [IAER],  ***
***                 & for each of 12 solar angles [SZA]    ***
**************************************************************

Aerosol optical thickness (560nm): AOT560
---------------------------------        

 0.0 0.1 0.2 0.3 0.4 0.5 0.6 0.7 0.8 0.9 1.0 1.1 1.2 1.3 1.4 1.5

12 Gaussian angles (deg): SZA
------------------------     

 2.84 17.64 28.77 36.19 43.61 51.03 58.46 65.88 69.59 73.30 77.01 80.72

Aerosol transmittance: [SZA x AOT560]
---------------------                

Aerosol model #60
 1 0.988178 0.975899 0.963281 0.95041 0.937624 0.92461 0.91179 0.898945 0.886143 0.873384 0.860737 0.848421 0.83574 0.823385 0.812105
 1 0.987014 0.97357 0.959867 0.945999 0.932049 0.918053 0.904031 0.890522 0.876803 0.863168 0.85033 0.837271 0.824425 0.8118 0.799405
 1 0.984684 0.968952 0.953008 0.93712 0.920827 0.905376 0.889655 0.874039 0.859713 0.844981 0.830547 0.816431 0.802629 0.789154 0.776005
 1 0.982032 0.963662 0.945441 0.927276 0.909359 0.891764 0.874538 0.857712 0.841311 0.825346 0.809816 0.794732 0.780081 0.765868 0.752072
 1 0.977952 0.955848 0.934038 0.912696 0.891926 0.871785 0.852305 0.833494 0.815358 0.797882 0.781053 0.764855 0.749265 0.734262 0.719819
 1 0.971552 0.943681 0.916765 0.890958 0.866316 0.842846 0.820528 0.799317 0.779169 0.76003 0.741844 0.724554 0.708105 0.692444 0.677516
 1 0.961072 0.92426 0.889847 0.857827 0.828094 0.800502 0.774891 0.75109 0.728949 0.708314 0.689043 0.671016 0.654118 0.638245 0.623303
 1 0.942771 0.891636 0.846221 0.805896 0.770022 0.738004 0.70931 0.683509 0.660165 0.638948 0.619563 0.601869 0.585495 0.570323 0.556197
 1 0.928159 0.866636 0.814034 0.768917 0.729982 0.696151 0.666627 0.640551 0.617365 0.596576 0.578051 0.561052 0.545686 0.531416 0.51835
 1 0.907007 0.83196 0.771136 0.72131 0.679994 0.645523 0.616106 0.590737 0.568931 0.549463 0.532349 0.516736 0.50274 0.489751 0.477917
 1 0.874607 0.782186 0.712883 0.659992 0.618455 0.585337 0.557999 0.535238 0.515577 0.498589 0.483379 0.469853 0.457424 0.446138 0.435584
 1 0.820801 0.707846 0.633565 0.582439 0.545309 0.516869 0.494253 0.475365 0.459303 0.445096 0.432362 0.420985 0.410401 0.400758 0.391652

