**************************************************************
***  MERIS LUT-168: Aerosol transmittance                  ***
***                 for each of AOTs at 560nm [AOT560],    ***
***                 for each of 78 aerosol models [IAER],  ***
***                 & for each of 12 solar angles [SZA]    ***
**************************************************************

Aerosol optical thickness (560nm): AOT560
---------------------------------        

 0.0 0.1 0.2 0.3 0.4 0.5 0.6 0.7 0.8 0.9 1.0 1.1 1.2 1.3 1.4 1.5

12 Gaussian angles (deg): SZA
------------------------     

 2.84 17.64 28.77 36.19 43.61 51.03 58.46 65.88 69.59 73.30 77.01 80.72

Aerosol transmittance: [SZA x AOT560]
---------------------                

Aerosol model #62
 1 0.987544 0.974613 0.961358 0.947858 0.934441 0.920958 0.907414 0.893917 0.880472 0.867086 0.853759 0.841264 0.828392 0.816222 0.803902
 1 0.986332 0.972197 0.957806 0.943272 0.928677 0.914187 0.899722 0.884872 0.871107 0.856977 0.842966 0.830084 0.816805 0.803776 0.791003
 1 0.983907 0.967337 0.950707 0.933937 0.917138 0.90101 0.884689 0.868521 0.853575 0.83833 0.823425 0.808868 0.794657 0.780806 0.767309
 1 0.981092 0.961926 0.942533 0.923927 0.905279 0.887001 0.869142 0.851733 0.83479 0.818329 0.802346 0.786847 0.771822 0.757259 0.743157
 1 0.976918 0.953832 0.931107 0.908923 0.887384 0.866543 0.846429 0.827048 0.808395 0.790457 0.773217 0.756651 0.740733 0.725437 0.710736
 1 0.970294 0.941279 0.913342 0.886632 0.861195 0.837032 0.814108 0.792372 0.771768 0.752236 0.733709 0.716122 0.699417 0.683535 0.668422
 1 0.959479 0.921317 0.885774 0.852818 0.822313 0.794085 0.767951 0.743726 0.721236 0.700314 0.680817 0.662604 0.645557 0.629562 0.614523
 1 0.94067 0.887948 0.841344 0.800144 0.763616 0.731103 0.702101 0.676023 0.652469 0.631201 0.611736 0.593881 0.577571 0.56238 0.548367
 1 0.925706 0.862484 0.808744 0.762824 0.72341 0.689255 0.659428 0.633142 0.610075 0.589262 0.570707 0.553716 0.538344 0.524088 0.511023
 1 0.904108 0.827338 0.765422 0.715094 0.673484 0.638855 0.609396 0.584243 0.56224 0.542985 0.525722 0.510287 0.496167 0.483316 0.471375
 1 0.871198 0.777139 0.70712 0.65395 0.612382 0.579303 0.552063 0.529376 0.509801 0.49286 0.477699 0.464191 0.451784 0.440495 0.429945
 1 0.816849 0.702685 0.628213 0.577205 0.540268 0.512013 0.489521 0.470727 0.454707 0.44053 0.427935 0.416412 0.405923 0.396141 0.387102

